File: static/data/PerCycle.csv
Cycle Number,Charge Capacity,Discharge Capacity,Minimum Differential Capacity,Maximum Differential Capacity,Maximum Cumulative Capacity,Charge Energy,Discharge Energy,Minimum Differential Energy,Maximum Differential Energy,Maximum Cumulative Energy,Coulombic Efficiency,Energy Efficiency,Voltage Efficiency,Minimum Potential,Maximum Potential,Mean Charge Potential,Mean Discharge Potential,Maximum Open Circuit Potential,Minimum Open Circuit Potential,Charge Relaxation Potential,Discharge Relaxation Potential,Constant Voltage Charge Time,Other Charge Time,Total Charge Time,Constant Voltage Discharge Time,Other Discharge Time,Total Discharge Time,Rest Time,Other Cycle Time,Total Cycle Time,Maximum Charge Power,Maximum Discharge Power,Mean Charge Power,Mean Discharge Power,Internal Resistance Charge,Internal Resistance Discharge,Minimum Potential Datapoint,Maximum Potential Datapoint,Charge Relaxation Potential Datapoint,Discharge Relaxation Potential Datapoint,Maximum Open Circuit Potential Datapoint,Minimum Open Circuit Potential Datapoint
1,0.0,0.151764,0.0,0.151764,0.151764,0.0,0.871778,0.0,0.871778,0.871778,None,None,None,5.499757,6.467822,None,5.74387,None,5.875601,None,5.73774,None,None,None,None,2818.99,2818.99,1800.08,None,4619.07,None,1.20448,None,1.11331,None,1.20756,48,1,None,49,None,108
2,0.139024,0.137798,0.0127402,0.151764,0.428585,0.900861,0.799874,-0.0290831,0.871778,2.57251,0.991182,0.887899,0.895799,5.499757,6.6002,6.53321,5.79444,None,5.874079,None,5.741697,2860.82,1407.57,4268.39,None,2519.56,2519.56,1800.01,None,8587.96,1.34042,1.23306,0.759796,1.14288,None,1.22983,224,134,None,225,None,284
3,0.077512,0.0852214,0.0730259,0.158247,0.591319,0.495489,0.484469,0.275303,0.770791,3.55247,1.09946,0.97776,0.889309,5.499757,6.6002,6.4032,5.67509,6.207622,5.871036,6.341222,5.745349,None,1371.22,1371.22,None,1556.36,1556.36,3600.08,None,6527.67,1.34506,1.17156,1.30085,1.12062,1.27083,1.24616,395,309,310,396,369,455
4,0.0776742,0.0797904,0.0805731,0.160364,0.748783,0.49663,0.453222,0.263141,0.759772,4.50232,1.02724,0.912595,0.888391,5.499757,6.6002,6.40447,5.67022,6.196058,5.87195,6.33635,5.7487,None,1374.49,1374.49,None,1456.96,1456.96,3601.14,None,6432.59,1.33933,1.16843,1.30075,1.11986,1.30146,1.2654,565,480,481,566,540,625
5,0.0765494,0.0773556,0.0838141,0.16117,0.902688,0.489576,0.439231,0.226788,0.716364,5.43113,1.01053,0.897166,0.887816,5.499757,6.6002,6.4064,5.66793,6.190275,5.87195,6.335135,5.750218,None,1354.92,1354.92,None,1412.52,1412.52,3600.04,None,6367.48,1.34289,1.16509,1.30079,1.11944,1.30295,1.26635,734,650,651,735,710,794
6,0.0766928,0.0758911,0.0844768,0.16117,1.05527,0.490322,0.430908,0.175697,0.666019,6.35236,0.989546,0.878828,0.888112,5.499757,6.6002,6.40488,5.6676,6.1921,5.87438,6.33422,5.752044,None,1394.18,1394.18,None,1386.19,1386.19,3600.05,None,6380.42,1.34274,1.16479,1.26609,1.11909,1.30743,1.27785,904,820,821,905,880,964
7,0.0734844,0.0733019,0.0868835,0.160368,1.20206,0.470213,0.415878,0.136392,0.606605,7.23845,0.997516,0.884447,0.886649,5.499757,6.6002,6.40992,5.66297,6.181754,5.87469,6.329962,5.75235,None,1301.34,1301.34,None,1337.94,1337.94,3600.06,None,6239.34,1.34738,1.16056,1.30078,1.11901,1.3238,1.28168,1071,988,989,1072,1048,1131
8,0.0727968,0.0719761,0.0873885,0.160185,1.34683,0.465831,0.408283,0.0864401,0.552271,8.11257,0.988726,0.876462,0.886457,5.499757,6.6002,6.41017,5.66176,6.17993,5.875905,6.32814,5.752957,None,1289.61,1289.61,None,1312.91,1312.91,3600.11,None,6202.63,1.34506,1.16197,1.30039,1.11951,1.33504,1.27793,1237,1155,1156,1238,1215,1297
9,0.0721713,0.0710862,0.0871933,0.159365,1.49009,0.461866,0.40317,0.0328567,0.494723,8.9776,0.984965,0.872915,0.88624,5.499757,6.6002,6.41088,5.66096,6.18023,5.876514,6.32783,5.75265,None,1278.97,1278.97,None,1297.01,1297.01,3600.14,None,6176.12,1.34042,1.16369,1.30005,1.11904,1.34117,1.28094,1403,1321,1322,1404,1381,1463
10,0.0716425,0.0704602,0.086637,0.15828,1.63219,0.458486,0.399567,-0.0224591,0.436027,9.83565,0.983497,0.871492,0.886116,5.499757,6.60051,6.41105,5.66016,6.17841,5.8753,6.327223,5.75265,None,1269.53,1269.53,None,1285.96,1285.96,3600.06,None,6155.54,1.34512,1.16339,1.30013,1.11858,1.34101,1.28094,1569,1487,1488,1570,1547,1629
11,0.0720207,0.0707485,0.0850765,0.157097,1.77496,0.460917,0.401243,-0.0838094,0.377108,10.6978,0.982336,0.870531,0.886184,5.499757,6.6002,6.41094,5.66065,6.178711,5.87499,6.32814,5.75235,None,1277.27,1277.27,None,1292.25,1292.25,3600.08,None,6169.6,1.34274,1.16161,1.2991,1.1178,1.33735,1.27939,1735,1653,1654,1736,1713,1795
12,0.07418,0.0723479,0.0816451,0.155825,1.92149,0.474021,0.410556,-0.156588,0.317433,11.5824,0.975302,0.866113,0.888045,5.499757,6.6002,6.40566,5.66399,6.188145,5.769695,6.332092,5.75144,None,1365.48,1365.48,None,1321.33,1321.33,1860.1,None,4546.91,1.34274,1.16116,1.24972,1.11857,1.3179,1.27933,1903,1820,1821,1904,1880,1905