File: static/data/TimeSeries.csv
Datapoint Number,Test Time,Cycle Number,Current,Potential,Step Index,Step Time,Charge Capacity,Discharge Capacity,Charge Energy,Discharge Energy,dV/dt,dQ/dV,Current Cycle Total Capacity,Current Cycle Total Energy,Test Differential capacity,Test Differential energy,Test Cumulative capacity,Test Cumulative energy,[Arbin] Datapoint Number,[Arbin] Test Time,[Arbin] Step Time,[Arbin] Date Time (excel format),[Arbin] Step Index,[Arbin] Cycle Number,[Arbin] Is Fast Capture,[Arbin] Current,[Arbin] Potential,[Arbin] Charge Capacity,[Arbin] Discharge Capacity,[Arbin] Charge Energy,[Arbin] Discharge Energy,[Arbin] dV/dT,[Arbin] Internal Resistance,[Arbin] AC Impedance,[Arbin] AC Impedance Phase Angle
1,60.0325,1,0.0,6.467822,1,59.7826,0.0,0.0,0.0,0.0,4.94066e-324,4.94066e-324,0.0,0.0,0.0,0.0,0.0,0.0,1,60.0325,59.7826,41164.6,1,1,False,0.0,6.467822,0.0,0.0,0.0,0.0,0.0,0.0,0.0,0.0
50,2939.09,1,0.0,5.75235,7,60.064,0.0,0.151764,0.0,0.871778,0.000485903,0.0,0.151764,0.871778,0.151764,0.871778,0.151764,0.871778,50,2939.09,60.064,41164.6,7,1,False,0.0,5.75235,0.0,0.151764,0.0,0.871778,0.0001814881,0.0,0.0,0.0
99,4410.73,1,0.0,5.867688,7,1531.71,0.0,0.151764,0.0,0.871778,4.05344e-05,0.0,0.151764,0.871778,0.151764,0.871778,0.151764,0.871778,99,4410.73,1531.71,41164.6,7,1,False,0.0,5.867688,0.0,0.151764,0.0,0.871778,0.0,0.0,0.0,0.0
148,6928.32,2,0.09232049,6.59777,4,840.552,0.111435,0.0,0.71884,0.0,5.06986e-06,5.20858,-0.111435,-0.71884,0.0403284,0.152938,0.263199,1.59062,148,6928.32,840.552,41164.6,4,2,False,0.09232049,6.59777,0.111435,0.0,0.71884,0.0,0.0,0.0,0.0,0.0
197,9849,2,-0.197079,5.87469,5,900.412,0.139024,0.0492432,0.900861,0.298245,-0.000324528,-0.168285,-0.0897804,-0.602616,0.0619835,0.269162,0.340031,2.07088,197,9849,900.412,41164.7,5,2,False,-0.197079,5.87469,0.139024,0.0492432,0.900861,0.298245,-0.0004247456,0.0,0.0,0.0
246,12128.8,2,0.0,5.83513,6,660.704,0.139024,0.137798,0.900861,0.799874,7.08264e-05,0.0,-0.00122597,-0.100987,0.150538,0.770791,0.428585,2.57251,246,12128.8,660.704,41164.7,6,2,False,0.0,5.83513,0.139024,0.137798,0.900861,0.799874,0.0004208052,0.0,0.0,0.0
295,13809.6,3,0.20379,6.35674,3,540.326,0.0305491,0.0,0.191394,0.0,0.000278887,0.20249,-0.0305491,-0.191394,0.119989,0.579397,0.459134,2.76391,295,13809.6,540.326,41164.7,3,3,False,0.20379,6.35674,0.0305491,0.0,0.191394,0.0,0.000240719,0.0,0.0,0.0
344,15691.8,3,0.0,6.221621,4,1051.26,0.077512,0.0,0.495489,0.0,-5.07185e-05,-0.0,-0.077512,-0.495489,0.0730259,0.275303,0.506097,3.068,344,15691.8,1051.26,41164.8,4,3,False,0.0,6.221621,0.077512,0.0,0.495489,0.0,0.0,0.0,0.0,0.0
393,17881.4,3,-0.196727,5.518625,5,1440.84,0.077512,0.0788965,0.495489,0.449622,-0.000182399,-0.300019,0.00138452,-0.0458665,0.151922,0.724925,0.584994,3.51762,393,17881.4,1440.84,41164.8,5,3,False,-0.196727,5.518625,0.077512,0.0788965,0.495489,0.449622,-0.00024347,0.0,0.0,0.0
442,19408.4,3,0.0,5.861906,6,1411.5,0.077512,0.0852214,0.495489,0.484469,2.02478e-05,0.0,0.00770941,-0.0110195,0.158247,0.759772,0.591319,3.55247,442,19408.4,1411.5,41164.8,6,3,False,0.0,5.861906,0.077512,0.0852214,0.495489,0.484469,0.000120553,0.0,0.0,0.0
491,21504,4,0.0,6.2484,4,330.519,0.0776742,0.0,0.49663,0.0,-7.08637e-05,-0.0,-0.0776742,-0.49663,0.0805731,0.263141,0.668993,4.0491,491,21504,330.519,41164.8,4,4,False,0.0,6.2484,0.0776742,0.0,0.49663,0.0,0.000120726,0.0,0.0,0.0
540,22973.5,4,0.0,6.196058,4,1800.02,0.0776742,0.0,0.49663,0.0,-1.09547e-05,-0.0,-0.0776742,-0.49663,0.0805731,0.263141,0.668993,4.0491,540,22973.5,1800.02,41164.8,4,4,False,0.0,6.196058,0.0776742,0.0,0.49663,0.0,-6.046595e-05,0.0,0.0,0.0
589,25151.3,4,0.0,5.844255,6,720.689,0.0776742,0.0797904,0.49663,0.453222,6.08018e-05,0.0,0.0021162,-0.0434081,0.160364,0.716364,0.748783,4.50232,589,25151.3,720.689,41164.9,6,4,False,0.0,5.844255,0.0776742,0.0797904,0.49663,0.453222,0.00011764,0.0,0.0,0.0
638,26892.1,5,0.20379,6.39752,3,660.364,0.0373047,0.0,0.234565,0.0,0.000288784,0.195652,-0.0373047,-0.234565,0.123059,0.481798,0.786088,4.73689,638,26892.1,660.364,41164.9,3,5,False,0.20379,6.39752,0.0373047,0.0,0.234565,0.0,0.000303363,0.0,0.0,0.0
687,28698.1,5,0.0,6.204274,4,1111.43,0.0765494,0.0,0.489576,0.0,-5.06332e-05,-0.0,-0.0765494,-0.489576,0.0838141,0.226788,0.825333,4.9919,687,28698.1,1111.43,41164.9,4,5,False,0.0,6.204274,0.0765494,0.0,0.489576,0.0,-0.000357433,0.0,0.0,0.0
736,30859.3,5,0.0,5.767565,6,60.0641,0.0765494,0.0773556,0.489576,0.439231,0.000577316,0.0,0.000806157,-0.050345,0.16117,0.666019,0.902688,5.43113,736,30859.3,60.0641,41164.9,6,5,False,0.0,5.767565,0.0765494,0.0773556,0.489576,0.439231,0.000424747,0.0,0.0,0.0
785,32330.9,5,0.0,5.86678,6,1531.71,0.0765494,0.0773556,0.489576,0.439231,3.04359e-05,0.0,0.000806157,-0.050345,0.16117,0.666019,0.902688,5.43113,785,32330.9,1531.71,41164.9,6,5,False,0.0,5.86678,0.0765494,0.0773556,0.489576,0.439231,-0.000120556,0.0,0.0,0.0
834,34414.9,6,0.0,6.239272,4,420.374,0.0766928,0.0,0.490322,0.0,-6.0793e-05,-0.0,-0.0766928,-0.490322,0.0844768,0.175697,0.979381,5.92145,834,34414.9,420.374,41165,4,6,False,0.0,6.239272,0.0766928,0.0,0.490322,0.0,0.000461982,0.0,0.0,0.0
883,35974.7,6,-0.196727,5.836647,5,180.098,0.0766928,0.00986098,0.490322,0.0581413,-0.000527076,-0.103881,-0.0668319,-0.43218,0.0943378,0.233838,0.989242,5.97959,883,35974.7,180.098,41165,5,6,False,-0.196727,5.836647,0.0766928,0.00986098,0.490322,0.0581413,-0.0005460704,0.0,0.0,0.0
932,38021.6,6,0.0,5.853385,6,840.817,0.0766928,0.0758911,0.490322,0.430908,9.12502e-05,0.0,-0.00080178,-0.0594134,0.160368,0.606605,1.05527,6.35236,932,38021.6,840.817,41165,6,6,False,0.0,5.853385,0.0766928,0.0758911,0.490322,0.430908,0.00030431,0.0,0.0,0.0
981,39882.5,7,0.203439,6.4806,3,900.6,0.0508525,0.0,0.322199,0.0,0.000278813,0.202766,-0.0508525,-0.322199,0.109515,0.284406,1.10612,6.67456,981,39882.5,900.6,41165,3,7,False,0.203439,6.4806,0.0508525,0.0,0.322199,0.0,0.00023899,0.0,0.0,0.0
1030,41544.7,7,0.0,6.193014,4,1261.5,0.0734844,0.0,0.470213,0.0,0.0,4.94066e-324,-0.0734844,-0.470213,0.0868835,0.136392,1.12876,6.82257,1030,41544.7,1261.5,41165,4,7,False,0.0,6.193014,0.0734844,0.0,0.470213,0.0,6.046713e-05,0.0,0.0,0.0
1079,43661.5,7,0.0,5.813214,6,240.303,0.0734844,0.0733019,0.470213,0.415878,0.000162124,0.0,-0.000182522,-0.0543344,0.160185,0.552271,1.20206,7.23845,1079,43661.5,240.303,41165.1,6,7,False,0.0,5.813214,0.0734844,0.0733019,0.470213,0.415878,0.000121402,0.0,0.0,0.0
1128,45133,7,0.0,5.874079,6,1711.82,0.0734844,0.0733019,0.470213,0.415878,8.10636e-05,0.0,-0.000182522,-0.0543344,0.160185,0.552271,1.20206,7.23845,1128,45133,1711.82,41165.1,6,7,False,0.0,5.874079,0.0734844,0.0733019,0.470213,0.415878,5.972341e-05,0.0,0.0,0.0
1177,47172.5,8,0.0,6.210057,4,660.578,0.0727968,0.0,0.465831,0.0,-5.07123e-05,-0.0,-0.0727968,-0.465831,0.0873885,0.0864401,1.27486,7.70428,1177,47172.5,660.578,41165.1,4,8,False,0.0,6.210057,0.0727968,0.0,0.465831,0.0,-0.000302424,0.0,0.0,0.0
1226,48972.3,8,-0.197782,5.65405,5,660.313,0.0727968,0.0362147,0.465831,0.209032,-0.000289103,-0.18947,-0.0365821,-0.256799,0.123603,0.295472,1.31107,7.91331,1226,48972.3,660.313,41165.1,5,8,False,-0.197782,5.65405,0.0727968,0.0362147,0.465831,0.209032,-0.000365244,0.0,0.0,0.0
1275,50766,8,0.0,5.86221,6,1141.09,0.0727968,0.0719761,0.465831,0.408283,3.03752e-05,0.0,-0.000820733,-0.0575476,0.159365,0.494723,1.34683,8.11257,1275,50766,1141.09,41165.2,6,8,False,0.0,5.86221,0.0727968,0.0719761,0.465831,0.408283,5.97237e-05,0.0,0.0,0.0
1324,52795,9,0.0,6.28431,4,90.0335,0.0721713,0.0,0.461866,0.0,-0.000568064,-0.0,-0.0721713,-0.461866,0.0871933,0.0328567,1.419,8.57443,1324,52795,90.0335,41165.2,4,9,False,0.0,6.28431,0.0721713,0.0,0.461866,0.0,-0.000486833,0.0,0.0,0.0
1373,54266.4,9,0.0,6.184493,4,1561.4,0.0721713,0.0,0.461866,0.0,5.07154e-05,0.0,-0.0721713,-0.461866,0.0871933,0.0328567,1.419,8.57443,1373,54266.4,1561.4,41165.2,4,9,False,0.0,6.184493,0.0721713,0.0,0.461866,0.0,0.000365157,0.0,0.0,0.0
1422,56372.6,9,0.0,5.84182,6,570.483,0.0721713,0.0710862,0.461866,0.40317,5.06167e-05,0.0,-0.00108512,-0.0586964,0.15828,0.436027,1.49009,8.9776,1422,56372.6,570.483,41165.2,6,9,False,0.0,5.84182,0.0721713,0.0710862,0.461866,0.40317,-6.06535e-05,0.0,0.0,0.0
1471,57963.5,10,0.202735,6.32053,3,360.254,0.0203058,0.0,0.126733,0.0,0.000354676,0.158829,-0.0203058,-0.126733,0.137974,0.309293,1.51039,9.10433,1471,57963.5,360.254,41165.2,3,10,False,0.202735,6.32053,0.0203058,0.0,0.126733,0.0,0.000424755,0.0,0.0,0.0
1520,59863.6,10,0.0,6.19788,4,990.868,0.0716425,0.0,0.458486,0.0,5.06661e-05,0.0,-0.0716425,-0.458486,0.086637,-0.0224591,1.56173,9.43609,1520,59863.6,990.868,41165.3,4,10,False,0.0,6.19788,0.0716425,0.0,0.458486,0.0,6.059852e-05,0.0,0.0,0.0
1569,61958.7,10,-0.1974304,5.499757,5,1285.95,0.0716425,0.0704602,0.458486,0.399567,-0.000215731,-0.253923,-0.00118232,-0.058919,0.157097,0.377108,1.63219,9.83565,1569,61958.7,1285.95,41165.3,5,10,False,-0.1974304,5.499757,0.0716425,0.0704602,0.458486,0.399567,-0.000182525,0.0,0.0,0.0
1618,63430.3,10,0.0,5.86951,6,1471.58,0.0716425,0.0704602,0.458486,0.399567,-4.05401e-05,-0.0,-0.00118232,-0.058919,0.157097,0.377108,1.63219,9.83565,1618,63430.3,1471.58,41165.3,6,10,False,0.0,5.86951,0.0716425,0.0704602,0.458486,0.399567,5.76938e-05,0.0,0.0,0.0
1667,65457.6,11,0.0,6.225273,4,420.401,0.0720207,0.0,0.460917,0.0,-9.12502e-05,-0.0,-0.0720207,-0.460917,0.0850765,-0.0838094,1.70421,10.2966,1667,65457.6,420.401,41165.3,4,11,False,0.0,6.225273,0.0720207,0.0,0.460917,0.0,0.0,0.0,0.0,0.0
1716,67017.3,11,-0.197079,5.818996,5,180.036,0.0720207,0.00985598,0.460917,0.05795,-0.000532418,-0.102824,-0.0621647,-0.402967,0.0949325,-0.0258595,1.71407,10.3545,1716,67017.3,180.036,41165.3,5,11,False,-0.197079,5.818996,0.0720207,0.00985598,0.460917,0.05795,-0.0003640123,0.0,0.0,0.0
1765,69030.5,11,0.0,5.85582,6,901.053,0.0720207,0.0707485,0.460917,0.401243,4.04737e-05,0.0,-0.00127214,-0.0596744,0.155825,0.317433,1.77496,10.6978,1765,69030.5,901.053,41165.4,6,11,False,0.0,5.85582,0.0720207,0.0707485,0.460917,0.401243,-5.99076e-05,0.0,0.0,0.0
1814,70951.1,12,0.200977,6.49065,3,1020.51,0.0561396,0.0,0.356186,0.0,0.000314302,0.162902,-0.0561396,-0.356186,0.0996855,-0.0387531,1.8311,11.054,1814,70951.1,1020.51,41165.4,3,12,False,0.200977,6.49065,0.0561396,0.0,0.356186,0.0,0.00564864,0.0,0.0,0.0
1863,72587.3,12,0.0,6.1988,4,1291.28,0.07418,0.0,0.474021,0.0,6.08087e-05,0.0,-0.07418,-0.474021,0.0816451,-0.156588,1.84914,11.1718,1863,72587.3,1291.28,41165.4,4,12,False,0.0,6.1988,0.07418,0.0,0.474021,0.0,0.0003015681,0.0,0.0,0.0
1905,74477.5,12,0.0,5.769695,6,60.0639,0.07418,0.0723479,0.474021,0.410556,0.00060801,0.0,-0.00183207,-0.0634654,0.153993,0.253968,1.92149,11.5824,1905,74477.5,60.0639,41165.4,6,12,False,0.0,5.769695,0.07418,0.0723479,0.474021,0.410556,0.0004853331,0.0,0.0,0.0